#********************  Core Scattering Data  ********************
#******************  B. Watts & H. Ade et al.  ******************
#
#Acronym:	P3HT
#Name:		Regioregular Poly(3-hexylthiophene-2,5-diyl)
#Formula:	C10SH14
#Formula Mass:	166.284160
#Reference:	J. Chem. Phys. 134, 024702 (2011); doi:10.1063/1.3506636
#Source:	Merck KGaA
#Acquisition:	TEY (drain current) NEXAFS
#Abs. Edge (Resolution):	C-K (50 meV)
#Incidence Angle:	50°
#Write Date:	2011-02-22
#----------------------------------------------------------------
#Energy (eV)	f1	f2
#----------------------------------------------------------------
10.000000	-9999.000000	12.120980
10.161700	-9999.000000	12.750330
10.326100	-9999.000000	13.412650
10.493100	-9999.000000	14.109660
10.662800	-9999.000000	14.843170
10.835300	-9999.000000	15.629010
11.010600	-9999.000000	16.498420
11.188600	-9999.000000	17.417040
11.369600	-9999.000000	18.417020
11.553500	-9999.000000	19.538740
11.740400	-9999.000000	20.728690
11.930300	-9999.000000	21.991230
12.123200	-9999.000000	23.125220
12.319300	-9999.000000	24.266210
12.518600	-9999.000000	25.465470
12.721000	-9999.000000	26.726240
12.926800	-9999.000000	27.917500
13.135900	-9999.000000	29.163360
13.348300	-9999.000000	30.473060
13.564200	-9999.000000	31.546250
13.783600	-9999.000000	32.606370
14.006600	-9999.000000	33.704980
14.233100	-9999.000000	34.843610
14.463300	-9999.000000	35.976130
14.697300	-9999.000000	36.969230
14.935000	-9999.000000	37.764770
15.176500	-9999.000000	38.580740
15.422000	-9999.000000	39.417740
15.671400	-9999.000000	40.275920
15.900000	-9999.000000	41.068810
15.924900	-9999.000000	41.155180
16.100000	-9999.000000	41.700800
16.182500	-9999.000000	41.957870
16.444200	-9999.000000	42.460680
16.710200	-9999.000000	44.192440
16.980500	-9999.000000	56.754980
17.255100	-9999.000000	56.679310
17.534200	-9999.000000	56.624890
17.817800	-9999.000000	56.536680
18.106000	-9999.000000	56.250760
18.398900	-9999.000000	55.979590
18.696400	-9999.000000	55.722720
18.998800	-9999.000000	55.444860
19.306100	-9999.000000	55.181520
19.618400	-9999.000000	54.926250
19.935700	-9999.000000	54.669810
20.258200	-9999.000000	54.347910
20.585800	-9999.000000	53.723880
20.918800	-9999.000000	52.972790
21.257100	-9999.000000	52.239490
21.600900	-9999.000000	51.523300
21.950300	-9999.000000	50.823800
22.305300	-9999.000000	50.140530
22.666100	-9999.000000	49.473010
23.032700	-9999.000000	48.677930
23.405300	-9999.000000	47.621310
23.783800	-9999.000000	46.593440
24.168500	-9999.000000	45.596220
24.559400	-9999.000000	44.674980
24.956600	-9999.000000	43.773180
25.360300	-9999.000000	42.892790
25.770500	-9999.000000	41.939340
26.187300	-9999.000000	40.987030
26.610900	-9999.000000	39.971710
27.041300	-9999.000000	38.950720
27.478600	-9999.000000	37.965900
27.923100	-9999.000000	37.015370
28.374700	-9999.000000	36.062370
28.833700	-9999.000000	35.136980
29.300000	53.487490	34.247410
29.773900	53.978350	33.307020
30.255500	54.345530	32.372460
30.744900	54.654610	31.556010
31.242100	54.966750	30.774970
31.747500	55.259830	30.018970
32.260900	55.532290	29.291650
32.782700	55.787060	28.588520
33.313000	56.022620	27.907510
33.851800	56.241100	27.251400
34.399300	56.443870	26.614460
34.955700	56.620070	25.995980
35.521100	56.783530	25.422990
36.095600	56.950350	24.870990
36.679400	57.113640	24.335840
37.200000	57.257250	23.880780
37.272700	57.276070	23.817240
37.400000	57.309310	23.710500
37.875500	57.436210	23.311830
38.488200	57.593800	22.820620
39.110700	57.769530	22.342790
39.743200	57.950980	21.829310
40.386100	58.092550	21.290510
41.039300	58.188840	20.766680
41.703100	58.256410	20.264970
42.377600	58.307060	19.787420
43.063000	58.340320	19.321340
43.759500	58.349570	18.873900
44.467300	58.336750	18.448920
45.186500	58.274000	18.045420
45.917400	58.219560	17.750910
46.660000	58.211590	17.463240
47.414700	58.215090	17.182470
48.181600	58.220870	16.908410
48.960900	58.229740	16.651430
49.752800	58.245020	16.404690
50.557600	58.266530	16.169750
51.375300	58.300900	15.941870
52.206200	58.333000	15.698900
53.050600	58.335250	15.462170
53.908700	58.327430	15.272050
54.780600	58.344580	15.115070
55.666700	58.385920	14.961570
56.567000	58.439390	14.812760
57.482000	58.506920	14.672040
58.411700	58.595750	14.535260
59.356400	58.700610	14.387350
60.316500	58.821380	14.237850
61.292100	58.967440	14.067270
62.283400	59.101160	13.842100
63.290800	59.201080	13.622370
64.314500	59.291910	13.405290
65.354700	59.372810	13.187120
66.411800	59.444050	12.973940
67.485900	59.511370	12.765630
68.577500	59.573600	12.556260
69.686700	59.628460	12.350460
70.813800	59.678370	12.148950
71.959100	59.727350	11.951820
73.123000	59.773040	11.750370
74.305700	59.808790	11.548880
75.507600	59.834610	11.352750
76.728900	59.856210	11.166080
77.969900	59.876840	10.983180
79.231000	59.895940	10.803250
80.512500	59.911670	10.623030
81.814700	59.921970	10.445030
83.138000	59.927310	10.269670
84.482700	59.927830	10.097430
85.849100	59.923880	9.928516
87.237700	59.915920	9.762888
88.648700	59.904050	9.600029
90.082500	59.888140	9.439812
91.539500	59.868170	9.281983
93.020100	59.843390	9.125996
94.524600	59.813530	8.972984
96.053500	59.779080	8.822871
97.607100	59.740250	8.675590
99.185800	59.698500	8.531093
100.790000	59.652990	8.385215
102.420000	59.599190	8.237944
104.077000	59.536340	8.093702
105.760000	59.465550	7.952116
107.471000	59.386150	7.814136
109.209000	59.299230	7.681301
110.975000	59.206100	7.552925
112.770000	59.107360	7.427967
114.594000	59.002580	7.304529
116.448000	58.889470	7.181336
118.331000	58.766320	7.059828
120.245000	58.632660	6.940483
122.190000	58.487990	6.823344
124.166000	58.331530	6.708364
126.175000	58.162060	6.595299
128.215000	57.978510	6.484286
130.289000	57.779470	6.375309
132.397000	57.567330	6.268239
134.538000	57.332930	6.149832
136.714000	57.065620	6.033428
138.925000	56.765830	5.919373
141.172000	56.428400	5.807614
143.456000	56.045700	5.698128
145.776000	55.606830	5.590856
148.134000	55.095080	5.486299
150.530000	54.485150	5.384786
152.964000	53.733890	5.286478
155.439000	52.755020	5.190171
157.953000	51.345100	5.095817
160.507000	48.756200	5.003372
162.400000	39.109110	4.937307
162.600000	39.106330	14.543760
163.103000	45.020670	14.523520
165.742000	50.100120	14.420830
168.422000	51.856980	14.319920
171.146000	52.918780	14.220720
173.915000	53.664160	14.123210
176.727000	54.225300	14.027460
179.586000	54.666450	13.933320
182.491000	55.024880	13.838380
185.442000	55.322470	13.732880
188.442000	55.556170	13.602540
191.489000	55.725500	13.469390
194.587000	55.839090	13.326920
197.734000	55.896470	13.183680
200.932000	55.901000	13.040070
204.182000	55.853070	12.899140
207.485000	55.752210	12.760780
210.840000	55.577750	12.625060
214.251000	55.354690	12.543140
217.716000	55.103410	12.474400
221.237000	54.813930	12.418460
224.816000	54.482500	12.368350
228.452000	54.099620	12.319970
232.147000	53.654360	12.273220
235.902000	53.135270	12.227970
239.717000	52.528460	12.184260
243.595000	51.817200	12.142020
247.535000	50.980040	12.096160
251.538000	49.970870	12.033200
255.607000	48.731140	11.972990
259.741000	47.195210	11.915610
260.000000	47.087710	11.912230
260.300000	46.961400	11.908320
260.600000	46.833070	11.904410
260.900000	46.702660	11.900510
261.200000	46.570110	11.896600
261.500000	46.435360	11.892690
261.800000	46.298350	11.888780
262.100000	46.159020	11.884870
262.400000	46.017310	11.880960
262.700000	45.873150	11.877050
263.000000	45.726460	11.873140
263.300000	45.577170	11.869230
263.600000	45.425200	11.865320
263.900000	45.270400	11.861420
264.200000	45.112780	11.857710
264.500000	44.952380	11.854050
264.800000	44.789060	11.850380
265.100000	44.622700	11.846710
265.400000	44.453220	11.843040
265.700000	44.280490	11.839380
266.000000	44.104430	11.835710
266.300000	43.924920	11.832040
266.600000	43.741850	11.828370
266.900000	43.555100	11.824700
267.200000	43.364550	11.821040
267.500000	43.170050	11.817370
267.800000	42.971470	11.813700
268.100000	42.768620	11.810030
268.400000	42.561380	11.806510
268.700000	42.349720	11.803080
269.000000	42.133470	11.799650
269.300000	41.912430	11.796210
269.600000	41.686400	11.792780
269.900000	41.455200	11.789340
270.200000	41.218620	11.785910
270.500000	40.976450	11.782480
270.800000	40.728480	11.779040
271.100000	40.474480	11.775610
271.400000	40.214230	11.772180
271.700000	39.947490	11.768740
272.000000	39.674070	11.765310
272.300000	39.393930	11.761870
272.600000	39.107310	11.757910
272.900000	38.812500	11.751350
273.200000	38.507760	11.744790
273.500000	38.193710	11.738230
273.800000	37.870010	11.731670
274.100000	37.536250	11.725100
274.400000	37.191960	11.718540
274.700000	36.836600	11.711980
275.000000	36.469600	11.705420
275.300000	36.090300	11.698860
275.600000	35.698010	11.692300
275.900000	35.291980	11.685740
276.200000	34.871390	11.679180
276.500000	34.435390	11.672620
276.800000	33.983480	11.666060
277.100000	33.514350	11.658000
277.400000	33.025110	11.648290
277.700000	32.513940	11.638580
278.000000	31.979880	11.628880
278.300000	31.421150	11.619170
278.600000	30.835700	11.609460
278.900000	30.221150	11.599760
279.200000	29.574680	11.590050
279.500000	28.892930	11.580340
279.800000	28.171650	11.570640
280.100000	27.397890	11.560930
280.400000	26.603710	11.593670
280.700000	25.763300	11.544250
281.000000	24.824490	11.528900
281.300000	23.823060	11.519940
281.600000	22.721290	11.499900
281.900000	21.534170	11.549650
282.200000	20.281590	11.565960
282.500000	18.872300	11.542180
282.800000	17.265880	11.536850
283.000000	16.074890	11.530900
283.012000	16.000980	11.529590
283.025000	15.920620	11.527930
283.038000	15.841530	11.525850
283.050000	15.769330	11.519040
283.063000	15.686110	11.506810
283.075000	15.602420	11.494630
283.087000	15.511650	11.485020
283.100000	15.408220	11.481430
283.113000	15.301530	11.491030
283.125000	15.224450	11.516730
283.137000	15.152480	11.514710
283.150000	15.065570	11.513960
283.163000	14.987560	11.520530
283.175000	14.902810	11.487480
283.188000	14.792460	11.489990
283.200000	14.695490	11.494380
283.212000	14.604220	11.509760
283.225000	14.514520	11.519160
283.238000	14.431580	11.527920
283.250000	14.350420	11.517500
283.262000	14.262880	11.515960
283.275000	14.162310	11.504050
283.288000	14.051930	11.503390
283.300000	13.960380	11.521100
283.313000	13.860580	11.510800
283.325000	13.766550	11.525010
283.337000	13.669040	11.514070
283.350000	13.558140	11.538930
283.363000	13.470660	11.550530
283.375000	13.383400	11.548730
283.387000	13.296530	11.555500
283.400000	13.212030	11.550570
283.413000	13.095560	11.509870
283.425000	12.990350	11.537750
283.438000	12.875120	11.504830
283.450000	12.760320	11.537540
283.462000	12.676920	11.543670
283.475000	12.570230	11.517570
283.488000	12.432040	11.510260
283.500000	12.325600	11.548630
283.512000	12.240010	11.539470
283.525000	12.107260	11.512640
283.538000	11.978990	11.544660
283.550000	11.876560	11.544620
283.563000	11.762420	11.547720
283.575000	11.632210	11.519510
283.587000	11.501380	11.569720
283.600000	11.405110	11.583110
283.613000	11.288320	11.564690
283.625000	11.158090	11.562470
283.637000	11.041870	11.589850
283.650000	10.926140	11.583860
283.663000	10.796190	11.577840
283.675000	10.662000	11.570080
283.688000	10.524890	11.592730
283.700000	10.400340	11.582580
283.712000	10.260630	11.588020
283.725000	10.113550	11.603340
283.738000	9.966870	11.614200
283.750000	9.831700	11.634870
283.762000	9.701538	11.651600
283.775000	9.564831	11.673620
283.788000	9.440024	11.687830
283.800000	9.311394	11.675300
283.813000	9.165346	11.684640
283.825000	9.034099	11.672730
283.837000	8.875430	11.655110
283.850000	8.699101	11.668890
283.863000	8.533907	11.676090
283.875000	8.364857	11.671810
283.887000	8.195496	11.706090
283.900000	8.020205	11.715490
283.913000	7.841325	11.750760
283.925000	7.687511	11.767230
283.938000	7.503784	11.777450
283.950000	7.336153	11.812840
283.962000	7.182813	11.825800
283.975000	6.984841	11.818470
283.988000	6.788502	11.865790
284.000000	6.603815	11.861470
284.012000	6.416734	11.913010
284.025000	6.220879	11.916550
284.038000	5.988278	11.936560
284.050000	5.792138	12.000080
284.063000	5.591021	12.020600
284.075000	5.384934	12.050250
284.087000	5.192015	12.086800
284.100000	4.962031	12.091240
284.113000	4.696669	12.119500
284.125000	4.470798	12.174590
284.137000	4.219835	12.182120
284.150000	3.941066	12.279640
284.163000	3.671040	12.309040
284.175000	3.389819	12.395020
284.188000	3.145894	12.487800
284.200000	2.865465	12.493790
284.212000	2.533807	12.599330
284.225000	2.197169	12.706060
284.238000	1.884170	12.879820
284.250000	1.609070	12.975000
284.262000	1.265556	13.073840
284.275000	0.894425	13.292780
284.288000	0.558844	13.474790
284.300000	0.208470	13.663570
284.313000	-0.148307	13.948720
284.325000	-0.475033	14.176690
284.337000	-0.792145	14.502170
284.350000	-1.096351	14.811690
284.363000	-1.433641	15.161450
284.375000	-1.702814	15.573840
284.387000	-1.890151	15.976360
284.400000	-2.060712	16.376680
284.413000	-2.245811	16.760890
284.425000	-2.421172	17.175670
284.438000	-2.438025	17.710100
284.450000	-2.447829	17.971420
284.462000	-2.470486	18.363440
284.475000	-2.433416	18.641740
284.488000	-2.459649	18.895100
284.500000	-2.506840	19.149340
284.512000	-2.520173	19.429450
284.525000	-2.500567	19.675330
284.538000	-2.496077	19.871990
284.550000	-2.530560	20.020590
284.563000	-2.627661	20.187850
284.575000	-2.701828	20.415640
284.587000	-2.735192	20.579630
284.600000	-2.855965	20.696010
284.613000	-3.040104	20.917330
284.625000	-3.138067	21.163640
284.637000	-3.246428	21.317030
284.650000	-3.431974	21.528100
284.663000	-3.620410	21.778840
284.675000	-3.835063	22.006790
284.688000	-4.061963	22.400800
284.700000	-4.170122	22.764160
284.712000	-4.275209	23.065600
284.725000	-4.450235	23.409850
284.738000	-4.635455	23.863430
284.750000	-4.708972	24.363750
284.762000	-4.685591	24.818820
284.775000	-4.637492	25.259060
284.788000	-4.576333	25.693360
284.800000	-4.501786	26.086160
284.813000	-4.333348	26.535670
284.825000	-4.160812	26.813870
284.837000	-3.986394	27.111560
284.850000	-3.837621	27.302730
284.863000	-3.762538	27.563540
284.875000	-3.605789	27.843470
284.887000	-3.468335	27.970930
284.900000	-3.407565	28.156090
284.913000	-3.308963	28.384920
284.925000	-3.213989	28.517400
284.938000	-3.165666	28.655170
284.950000	-3.137191	28.794380
284.962000	-3.131117	28.909400
284.975000	-3.170098	29.042640
284.988000	-3.244449	29.194760
285.000000	-3.347604	29.352880
285.012000	-3.465109	29.556620
285.025000	-3.604206	29.777480
285.038000	-3.813141	30.019470
285.050000	-4.031479	30.362510
285.063000	-4.230223	30.776720
285.075000	-4.407858	31.202480
285.087000	-4.624993	31.664510
285.100000	-4.786567	32.389770
285.113000	-4.826036	33.062220
285.125000	-4.804085	33.765920
285.137000	-4.787051	34.404570
285.150000	-4.636433	35.391490
285.163000	-4.265311	36.187920
285.175000	-3.874978	36.926860
285.188000	-3.406293	37.637760
285.200000	-2.922142	38.346930
285.212000	-2.329174	39.014350
285.225000	-1.576058	39.696770
285.238000	-0.680556	40.264890
285.250000	0.124193	40.585330
285.262000	0.910487	40.932050
285.275000	1.803312	41.207240
285.288000	2.724791	41.436020
285.300000	3.621426	41.551220
285.313000	4.557869	41.561080
285.325000	5.409792	41.486510
285.337000	6.211985	41.369470
285.350000	7.113704	41.233790
285.363000	7.990431	40.880220
285.375000	8.680022	40.588140
285.387000	9.451347	40.319380
285.400000	10.228090	39.718070
285.413000	10.786610	39.221020
285.425000	11.359330	38.843960
285.438000	12.033910	38.297320
285.450000	12.651960	37.721330
285.462000	13.174100	36.925310
285.475000	13.477520	36.044330
285.488000	13.558010	35.281890
285.500000	13.696000	34.845540
285.512000	14.008620	34.308110
285.525000	14.218930	33.478080
285.538000	14.271490	32.794450
285.550000	14.303220	32.143000
285.563000	14.223570	31.478330
285.575000	14.329670	31.063990
285.587000	14.302480	30.085420
285.600000	13.995030	29.536020
285.613000	13.802210	28.924970
285.625000	13.556600	28.380440
285.637000	13.313750	27.898780
285.650000	12.992540	27.303730
285.663000	12.552580	26.821460
285.675000	12.163320	26.503950
285.688000	11.839240	26.202350
285.700000	11.548290	25.829540
285.712000	11.146370	25.471910
285.725000	10.707780	25.226110
285.738000	10.309040	24.993360
285.750000	9.969804	24.818580
285.762000	9.639782	24.608140
285.775000	9.266225	24.409770
285.788000	8.885194	24.207390
285.800000	8.486071	24.040410
285.813000	8.089894	23.961770
285.825000	7.757896	23.856550
285.837000	7.431497	23.774810
285.850000	7.059112	23.655480
285.863000	6.705186	23.608540
285.875000	6.353894	23.501470
285.887000	6.012196	23.499250
285.900000	5.685239	23.461000
285.940000	4.636270	23.372300
285.980000	3.641174	23.384130
286.020000	2.664978	23.407490
286.060000	1.668614	23.503490
286.100000	0.697341	23.672400
286.140000	-0.231850	23.878270
286.180000	-1.185930	24.066030
286.220000	-2.163800	24.360450
286.260000	-3.127746	24.665200
286.300000	-4.119032	25.029750
286.340000	-5.097272	25.460110
286.380000	-6.061723	25.896990
286.420000	-7.098052	26.323000
286.460000	-8.200225	26.873120
286.500000	-9.301138	27.488510
286.540000	-10.446050	28.145740
286.580000	-11.644220	28.896510
286.620000	-12.947930	29.698720
286.660000	-14.381240	30.736590
286.700000	-15.774750	32.062080
286.740000	-17.132450	33.495480
286.780000	-18.519090	35.204090
286.820000	-19.827630	37.230220
286.860000	-20.930710	39.601490
286.900000	-21.723210	42.209550
286.940000	-22.227650	44.972530
286.980000	-22.337450	47.969910
287.020000	-22.107270	50.921190
287.060000	-21.328820	54.194510
287.100000	-19.904990	57.062200
287.140000	-18.171240	59.622990
287.180000	-15.988300	61.904300
287.220000	-13.733600	63.424010
287.260000	-11.510090	64.792050
287.300000	-9.159228	65.725230
287.340000	-7.049176	66.151130
287.380000	-5.140047	66.476970
287.420000	-3.416808	66.564660
287.460000	-1.980984	66.542330
287.500000	-0.692934	66.676940
287.540000	0.535724	66.719250
287.580000	1.712705	66.911180
287.620000	2.976799	67.015010
287.660000	4.215432	67.036480
287.700000	5.367444	66.913890
287.740000	6.462431	66.892830
287.780000	7.574801	66.741120
287.820000	8.577751	66.590520
287.860000	9.590824	66.495440
287.900000	10.699380	66.379970
287.940000	11.892190	66.084130
287.980000	13.001280	65.574710
288.020000	13.967850	64.993410
288.060000	14.818870	64.343340
288.100000	15.620450	63.690170
288.140000	16.256000	62.822750
288.180000	16.707080	62.104890
288.220000	17.113360	61.347060
288.260000	17.315020	60.545910
288.300000	17.380780	59.946720
288.340000	17.471740	59.440950
288.380000	17.483760	58.905110
288.420000	17.464530	58.551950
288.460000	17.507480	58.206430
288.500000	17.468220	57.814630
288.540000	17.372600	57.587390
288.580000	17.425350	57.469010
288.620000	17.446370	57.100420
288.660000	17.373170	56.952990
288.700000	17.350220	56.782260
288.740000	17.338520	56.654460
288.780000	17.318510	56.487960
288.820000	17.247100	56.377290
288.860000	17.263270	56.359420
288.900000	17.337240	56.179580
288.940000	17.213170	55.987870
288.980000	17.115750	55.985500
289.020000	17.127580	56.025230
289.060000	17.175110	55.885250
289.100000	17.073520	55.787570
289.140000	17.021600	55.814940
289.180000	17.036640	55.799700
289.220000	17.015370	55.697500
289.260000	16.963600	55.673030
289.300000	16.922200	55.604140
289.340000	16.802300	55.536790
